alpha(x) =  0.500  beta(v) =  1.000  delta (t) = 0.050
Free stream: density =  1.000  velocity = -1.000  temperature =  1.000
x,t=    0.000,  t=    5.000,  t=   10.000,  t=   15.000,  t=   20.000,  t=   25.000,  t=   30.000,  t=   35.000,  t=   40.000,  t=   45.000,  t=   50.000,
    0.000000,       1.000001,       1.617296,       1.640208,       1.648514,       1.652699,       1.655121,       1.656615,       1.657620,       1.658246,       1.658648,       1.658897,
    0.500000,       1.000001,       1.620233,       1.640675,       1.648702,       1.652796,       1.655175,       1.656647,       1.657640,       1.658265,       1.658667,       1.658909,
    1.000000,       1.000001,       1.625759,       1.641901,       1.649206,       1.653056,       1.655333,       1.656744,       1.657710,       1.658314,       1.658699,       1.658938,
    1.500000,       1.000001,       1.632771,       1.643775,       1.649993,       1.653479,       1.655582,       1.656903,       1.657822,       1.658392,       1.658751,       1.658978,
    2.000000,       1.000001,       1.640037,       1.646182,       1.651035,       1.654033,       1.655924,       1.657126,       1.657966,       1.658490,       1.658823,       1.659022,
    2.500000,       1.000001,       1.646160,       1.648948,       1.652300,       1.654719,       1.656340,       1.657402,       1.658144,       1.658614,       1.658911,       1.659089,
    3.000000,       1.000001,       1.649522,       1.651940,       1.653715,       1.655500,       1.656817,       1.657718,       1.658353,       1.658758,       1.659018,       1.659163,
    3.500000,       1.000001,       1.648232,       1.654964,       1.655254,       1.656376,       1.657349,       1.658081,       1.658597,       1.658928,       1.659137,       1.659246,
    4.000000,       1.000001,       1.640013,       1.657890,       1.656828,       1.657299,       1.657925,       1.658466,       1.658858,       1.659117,       1.659265,       1.659345,
    4.500000,       1.000001,       1.622292,       1.660545,       1.658412,       1.658250,       1.658535,       1.658873,       1.659139,       1.659311,       1.659405,       1.659454,
    5.000000,       1.000001,       1.592589,       1.662826,       1.659944,       1.659202,       1.659168,       1.659293,       1.659429,       1.659514,       1.659565,       1.659557,
    5.500000,       1.000001,       1.549332,       1.664586,       1.661389,       1.660130,       1.659793,       1.659722,       1.659721,       1.659733,       1.659713,       1.659676,
    6.000000,       1.000001,       1.492913,       1.665689,       1.662704,       1.661037,       1.660393,       1.660144,       1.660029,       1.659946,       1.659868,       1.659788,
    6.500000,       1.000001,       1.426432,       1.665982,       1.663872,       1.661870,       1.660983,       1.660560,       1.660321,       1.660156,       1.660030,       1.659899,
    7.000000,       1.000001,       1.355412,       1.665232,       1.664858,       1.662617,       1.661526,       1.660954,       1.660609,       1.660375,       1.660193,       1.660023,
    7.500000,       1.000001,       1.286227,       1.663122,       1.665655,       1.663304,       1.662036,       1.661334,       1.660889,       1.660588,       1.660353,       1.660146,
    8.000000,       1.000001,       1.224094,       1.659214,       1.666253,       1.663887,       1.662503,       1.661685,       1.661158,       1.660791,       1.660509,       1.660267,
    8.500000,       1.000001,       1.171833,       1.652858,       1.666640,       1.664379,       1.662908,       1.662008,       1.661410,       1.660985,       1.660658,       1.660375,
    9.000000,       1.000001,       1.129966,       1.643186,       1.666812,       1.664761,       1.663258,       1.662300,       1.661637,       1.661165,       1.660793,       1.660485,
    9.500000,       1.000001,       1.097534,       1.629050,       1.666749,       1.665044,       1.663540,       1.662537,       1.661846,       1.661322,       1.660925,       1.660586,
   10.000000,       1.000001,       1.072930,       1.609091,       1.666439,       1.665218,       1.663751,       1.662735,       1.662014,       1.661469,       1.661039,       1.660673,
   10.500000,       1.000001,       1.054501,       1.581884,       1.665846,       1.665301,       1.663900,       1.662881,       1.662151,       1.661593,       1.661137,       1.660747,
   11.000000,       1.000001,       1.040787,       1.546266,       1.664913,       1.665295,       1.663980,       1.662984,       1.662255,       1.661691,       1.661216,       1.660816,
   11.500000,       1.000001,       1.030614,       1.501844,       1.663569,       1.665199,       1.664004,       1.663058,       1.662331,       1.661759,       1.661282,       1.660877,
   12.000000,       1.000001,       1.023062,       1.449466,       1.661677,       1.665017,       1.663979,       1.663077,       1.662364,       1.661800,       1.661325,       1.660910,
   12.500000,       1.000001,       1.017452,       1.391493,       1.659050,       1.664756,       1.663888,       1.663051,       1.662376,       1.661820,       1.661344,       1.660939,
   13.000000,       1.000001,       1.013268,       1.331507,       1.655431,       1.664425,       1.663759,       1.662987,       1.662354,       1.661816,       1.661349,       1.660951,
   13.500000,       1.000001,       1.010122,       1.273424,       1.650424,       1.664023,       1.663583,       1.662893,       1.662303,       1.661784,       1.661339,       1.660942,
   14.000000,       1.000001,       1.007755,       1.220512,       1.643504,       1.663549,       1.663368,       1.662762,       1.662225,       1.661729,       1.661305,       1.660921,
   14.500000,       1.000001,       1.005951,       1.174771,       1.633958,       1.662988,       1.663121,       1.662612,       1.662127,       1.661653,       1.661250,       1.660880,
   15.000000,       1.000001,       1.004572,       1.136808,       1.620839,       1.662315,       1.662844,       1.662431,       1.661999,       1.661565,       1.661180,       1.660822,
   15.500000,       1.000001,       1.003515,       1.106272,       1.603035,       1.661523,       1.662557,       1.662229,       1.661840,       1.661447,       1.661100,       1.660752,
   16.000000,       1.000001,       1.002692,       1.082208,       1.579320,       1.660553,       1.662243,       1.662013,       1.661666,       1.661321,       1.661005,       1.660665,
   16.500000,       1.000001,       1.002059,       1.063514,       1.548574,       1.659368,       1.661907,       1.661753,       1.661478,       1.661184,       1.660886,       1.660568,
   17.000000,       1.000001,       1.001573,       1.049105,       1.510082,       1.657857,       1.661549,       1.661497,       1.661281,       1.661031,       1.660760,       1.660458,
   17.500000,       1.000001,       1.001201,       1.038036,       1.464045,       1.655901,       1.661197,       1.661234,       1.661078,       1.660870,       1.660616,       1.660329,
   18.000000,       1.000001,       1.000914,       1.029548,       1.411851,       1.653330,       1.660815,       1.660983,       1.660870,       1.660687,       1.660467,       1.660202,
   18.500000,       1.000001,       1.000696,       1.023033,       1.356078,       1.649893,       1.660411,       1.660714,       1.660638,       1.660494,       1.660294,       1.660054,
   19.000000,       1.000001,       1.000533,       1.018018,       1.300047,       1.645253,       1.659976,       1.660441,       1.660411,       1.660293,       1.660115,       1.659914,
   19.500000,       1.000001,       1.000406,       1.014152,       1.247016,       1.638947,       1.659514,       1.660153,       1.660171,       1.660078,       1.659942,       1.659762,
   20.000000,       1.000001,       1.000308,       1.011163,       1.199449,       1.630338,       1.659014,       1.659871,       1.659927,       1.659873,       1.659766,       1.659602,
   20.500000,       1.000001,       1.000234,       1.008840,       1.158671,       1.618625,       1.658434,       1.659599,       1.659687,       1.659661,       1.659576,       1.659447,
   21.000000,       1.000001,       1.000178,       1.007029,       1.124930,       1.602802,       1.657742,       1.659336,       1.659454,       1.659458,       1.659398,       1.659289,
   21.500000,       1.000001,       1.000134,       1.005604,       1.097735,       1.581737,       1.656899,       1.659084,       1.659240,       1.659255,       1.659223,       1.659135,
   22.000000,       1.000001,       1.000101,       1.004487,       1.076203,       1.554301,       1.655861,       1.658824,       1.659027,       1.659062,       1.659057,       1.658992,
   22.500000,       1.000001,       1.000075,       1.003600,       1.059362,       1.519648,       1.654534,       1.658575,       1.658819,       1.658887,       1.658891,       1.658846,
   23.000000,       1.000001,       1.000056,       1.002905,       1.046275,       1.477588,       1.652805,       1.658319,       1.658607,       1.658696,       1.658720,       1.658683,
   23.500000,       1.000001,       1.000042,       1.002348,       1.036141,       1.428948,       1.650518,       1.658052,       1.658422,       1.658514,       1.658550,       1.658538,
   24.000000,       1.000001,       1.000032,       1.001904,       1.028303,       1.375714,       1.647440,       1.657773,       1.658233,       1.658352,       1.658396,       1.658399,
   24.500000,       1.000001,       1.000024,       1.001544,       1.022235,       1.320816,       1.643285,       1.657462,       1.658061,       1.658181,       1.658247,       1.658260,
   25.000000,       1.000001,       1.000018,       1.001260,       1.017529,       1.267455,       1.637625,       1.657126,       1.657871,       1.658020,       1.658097,       1.658112,
   25.500000,       1.000001,       1.000015,       1.001028,       1.013875,       1.218375,       1.629907,       1.656741,       1.657717,       1.657865,       1.657952,       1.657982,
   26.000000,       1.000001,       1.000013,       1.000841,       1.011024,       1.175364,       1.619404,       1.656282,       1.657547,       1.657715,       1.657800,       1.657851,
   26.500000,       1.000001,       1.000011,       1.000694,       1.008785,       1.139107,       1.605198,       1.655727,       1.657387,       1.657575,       1.657661,       1.657708,
   27.000000,       1.000001,       1.000009,       1.000567,       1.007031,       1.109448,       1.586225,       1.655039,       1.657219,       1.657437,       1.657537,       1.657588,
   27.500000,       1.000001,       1.000008,       1.000468,       1.005644,       1.085701,       1.561362,       1.654153,       1.657049,       1.657302,       1.657410,       1.657472,
   28.000000,       1.000001,       1.000007,       1.000388,       1.004546,       1.066965,       1.529646,       1.653001,       1.656888,       1.657167,       1.657284,       1.657355,
   28.500000,       1.000001,       1.000007,       1.000321,       1.003676,       1.052312,       1.490626,       1.651478,       1.656716,       1.657039,       1.657161,       1.657232,
   29.000000,       1.000001,       1.000007,       1.000266,       1.002982,       1.040917,       1.444723,       1.649442,       1.656542,       1.656914,       1.657037,       1.657114,
   29.500000,       1.000001,       1.000007,       1.000217,       1.002427,       1.032071,       1.393473,       1.646687,       1.656361,       1.656794,       1.656913,       1.656998,
   30.000000,       1.000001,       1.000006,       1.000179,       1.001980,       1.025207,       1.339443,       1.642956,       1.656148,       1.656680,       1.656803,       1.656881,
   30.500000,       1.000001,       1.000006,       1.000151,       1.001620,       1.019877,       1.285761,       1.637864,       1.655893,       1.656574,       1.656696,       1.656777,
   31.000000,       1.000001,       1.000006,       1.000125,       1.001329,       1.015733,       1.235340,       1.630916,       1.655602,       1.656482,       1.656594,       1.656667,
   31.500000,       1.000001,       1.000006,       1.000108,       1.001091,       1.012492,       1.190329,       1.621438,       1.655236,       1.656397,       1.656507,       1.656567,
   32.000000,       1.000001,       1.000006,       1.000090,       1.000902,       1.009957,       1.151805,       1.608599,       1.654779,       1.656310,       1.656415,       1.656481,
   32.500000,       1.000001,       1.000006,       1.000078,       1.000745,       1.007961,       1.119911,       1.591390,       1.654191,       1.656216,       1.656348,       1.656401,
   33.000000,       1.000001,       1.000006,       1.000066,       1.000620,       1.006391,       1.094144,       1.568690,       1.653421,       1.656129,       1.656287,       1.656324,
   33.500000,       1.000001,       1.000006,       1.000057,       1.000518,       1.005146,       1.073687,       1.539477,       1.652405,       1.656022,       1.656223,       1.656269,
   34.000000,       1.000001,       1.000006,       1.000048,       1.000433,       1.004159,       1.057614,       1.503098,       1.651044,       1.655919,       1.656163,       1.656209,
   34.500000,       1.000001,       1.000006,       1.000040,       1.000360,       1.003371,       1.045076,       1.459633,       1.649211,       1.655797,       1.656104,       1.656158,
   35.000000,       1.000001,       1.000006,       1.000033,       1.000300,       1.002741,       1.035331,       1.410220,       1.646733,       1.655664,       1.656046,       1.656106,
   35.500000,       1.000001,       1.000006,       1.000031,       1.000250,       1.002236,       1.027756,       1.357092,       1.643366,       1.655507,       1.655998,       1.656055,
   36.000000,       1.000001,       1.000006,       1.000029,       1.000209,       1.001830,       1.021877,       1.303227,       1.638769,       1.655313,       1.655946,       1.656007,
   36.500000,       1.000001,       1.000006,       1.000026,       1.000178,       1.001503,       1.017297,       1.251646,       1.632479,       1.655071,       1.655885,       1.655958,
   37.000000,       1.000001,       1.000006,       1.000024,       1.000152,       1.001233,       1.013726,       1.204808,       1.623902,       1.654764,       1.655828,       1.655922,
   37.500000,       1.000001,       1.000006,       1.000021,       1.000130,       1.001022,       1.010927,       1.164163,       1.612268,       1.654375,       1.655773,       1.655885,
   38.000000,       1.000001,       1.000006,       1.000018,       1.000110,       1.000841,       1.008726,       1.130117,       1.596601,       1.653855,       1.655720,       1.655840,
   38.500000,       1.000001,       1.000006,       1.000017,       1.000095,       1.000701,       1.006998,       1.102394,       1.575829,       1.653171,       1.655658,       1.655805,
   39.000000,       1.000001,       1.000006,       1.000016,       1.000081,       1.000582,       1.005629,       1.080240,       1.548877,       1.652260,       1.655591,       1.655765,
   39.500000,       1.000001,       1.000006,       1.000016,       1.000070,       1.000487,       1.004542,       1.062773,       1.514925,       1.651035,       1.655516,       1.655722,
   40.000000,       1.000001,       1.000006,       1.000015,       1.000062,       1.000406,       1.003677,       1.049117,       1.473795,       1.649383,       1.655430,       1.655688,
   40.500000,       1.000001,       1.000006,       1.000015,       1.000053,       1.000340,       1.002990,       1.038479,       1.426242,       1.647137,       1.655328,       1.655660,
   41.000000,       1.000001,       1.000006,       1.000015,       1.000048,       1.000284,       1.002434,       1.030214,       1.374164,       1.644089,       1.655199,       1.655627,
   41.500000,       1.000001,       1.000006,       1.000014,       1.000042,       1.000238,       1.001988,       1.023789,       1.320331,       1.639921,       1.655040,       1.655599,
   42.000000,       1.000001,       1.000006,       1.000014,       1.000036,       1.000202,       1.001629,       1.018791,       1.267828,       1.634228,       1.654834,       1.655564,
   42.500000,       1.000001,       1.000006,       1.000014,       1.000032,       1.000172,       1.001338,       1.014890,       1.219338,       1.626453,       1.654569,       1.655532,
   43.000000,       1.000001,       1.000006,       1.000014,       1.000031,       1.000146,       1.001106,       1.011842,       1.176657,       1.615880,       1.654223,       1.655501,
   43.500000,       1.000001,       1.000006,       1.000014,       1.000028,       1.000125,       1.000912,       1.009450,       1.140507,       1.601614,       1.653764,       1.655460,
   44.000000,       1.000001,       1.000006,       1.000013,       1.000026,       1.000107,       1.000755,       1.007569,       1.110819,       1.582588,       1.653143,       1.655422,
   44.500000,       1.000001,       1.000006,       1.000013,       1.000026,       1.000093,       1.000630,       1.006081,       1.086959,       1.557714,       1.652326,       1.655378,
   45.000000,       1.000001,       1.000006,       1.000013,       1.000024,       1.000078,       1.000525,       1.004903,       1.068061,       1.526080,       1.651212,       1.655324,
   45.500000,       1.000001,       1.000006,       1.000013,       1.000022,       1.000071,       1.000440,       1.003964,       1.053252,       1.487240,       1.649713,       1.655257,
   46.000000,       1.000001,       1.000006,       1.000013,       1.000021,       1.000062,       1.000368,       1.003218,       1.041702,       1.441639,       1.647677,       1.655171,
   46.500000,       1.000001,       1.000006,       1.000013,       1.000021,       1.000054,       1.000307,       1.002618,       1.032723,       1.390802,       1.644905,       1.655061,
   47.000000,       1.000001,       1.000006,       1.000013,       1.000020,       1.000048,       1.000257,       1.002135,       1.025742,       1.337267,       1.641132,       1.654926,
   47.500000,       1.000001,       1.000006,       1.000013,       1.000020,       1.000044,       1.000219,       1.001749,       1.020309,       1.284088,       1.635967,       1.654743,
   48.000000,       1.000001,       1.000006,       1.000013,       1.000020,       1.000037,       1.000186,       1.001438,       1.016083,       1.234136,       1.628909,       1.654509,
   48.500000,       1.000001,       1.000006,       1.000013,       1.000019,       1.000034,       1.000159,       1.001183,       1.012778,       1.189516,       1.619300,       1.654195,
   49.000000,       1.000001,       1.000006,       1.000013,       1.000018,       1.000033,       1.000137,       1.000979,       1.010185,       1.151288,       1.606295,       1.653787,
   49.500000,       1.000001,       1.000006,       1.000013,       1.000017,       1.000029,       1.000118,       1.000812,       1.008142,       1.119613,       1.588884,       1.653226,
   50.000000,       1.000001,       1.000006,       1.000013,       1.000017,       1.000029,       1.000103,       1.000675,       1.006538,       1.093988,       1.565972,       1.652477,
   50.500000,       1.000001,       1.000006,       1.000013,       1.000016,       1.000027,       1.000088,       1.000564,       1.005266,       1.073621,       1.536550,       1.651467,
   51.000000,       1.000001,       1.000006,       1.000013,       1.000016,       1.000025,       1.000077,       1.000472,       1.004253,       1.057600,       1.499994,       1.650111,
   51.500000,       1.000001,       1.000006,       1.000013,       1.000016,       1.000024,       1.000072,       1.000394,       1.003449,       1.045092,       1.456432,       1.648251,
   52.000000,       1.000001,       1.000006,       1.000013,       1.000015,       1.000024,       1.000061,       1.000331,       1.002802,       1.035357,       1.407042,       1.645734,
   52.500000,       1.000001,       1.000006,       1.000013,       1.000016,       1.000024,       1.000056,       1.000278,       1.002287,       1.027789,       1.354074,       1.642305,
   53.000000,       1.000001,       1.000006,       1.000013,       1.000015,       1.000023,       1.000051,       1.000236,       1.001869,       1.021908,       1.300491,       1.637620,
   53.500000,       1.000001,       1.000006,       1.000013,       1.000015,       1.000023,       1.000044,       1.000201,       1.001536,       1.017326,       1.249288,       1.631215,
   54.000000,       1.000001,       1.000006,       1.000013,       1.000015,       1.000023,       1.000040,       1.000172,       1.001263,       1.013749,       1.202850,       1.622483,
   54.500000,       1.000001,       1.000006,       1.000013,       1.000015,       1.000023,       1.000038,       1.000149,       1.001047,       1.010948,       1.162579,       1.610633,
   55.000000,       1.000001,       1.000006,       1.000013,       1.000016,       1.000023,       1.000036,       1.000127,       1.000863,       1.008745,       1.128884,       1.594718,
   55.500000,       1.000001,       1.000006,       1.000013,       1.000015,       1.000023,       1.000035,       1.000111,       1.000718,       1.007014,       1.101437,       1.573641,
   56.000000,       1.000001,       1.000006,       1.000013,       1.000015,       1.000023,       1.000033,       1.000095,       1.000600,       1.005643,       1.079519,       1.546342,
   56.500000,       1.000001,       1.000006,       1.000013,       1.000015,       1.000023,       1.000032,       1.000085,       1.000501,       1.004553,       1.062231,       1.512048,
   57.000000,       1.000001,       1.000006,       1.000013,       1.000015,       1.000022,       1.000030,       1.000077,       1.000419,       1.003687,       1.048705,       1.470611,
   57.500000,       1.000001,       1.000006,       1.000013,       1.000015,       1.000022,       1.000030,       1.000069,       1.000352,       1.002997,       1.038163,       1.422863,
   58.000000,       1.000001,       1.000006,       1.000013,       1.000015,       1.000022,       1.000028,       1.000060,       1.000297,       1.002441,       1.029978,       1.370741,
   58.500000,       1.000001,       1.000006,       1.000013,       1.000015,       1.000022,       1.000028,       1.000057,       1.000249,       1.001994,       1.023609,       1.317028,
   59.000000,       1.000001,       1.000006,       1.000013,       1.000015,       1.000022,       1.000028,       1.000052,       1.000213,       1.001635,       1.018649,       1.264803,
   59.500000,       1.000001,       1.000006,       1.000013,       1.000015,       1.000021,       1.000028,       1.000045,       1.000183,       1.001343,       1.014784,       1.216694,
   60.000000,       1.000001,       1.000006,       1.000013,       1.000015,       1.000021,       1.000027,       1.000043,       1.000157,       1.001112,       1.011759,       1.174428,
   60.500000,       1.000001,       1.000006,       1.000013,       1.000015,       1.000021,       1.000027,       1.000040,       1.000136,       1.000917,       1.009384,       1.138696,
   61.000000,       1.000001,       1.000006,       1.000013,       1.000015,       1.000021,       1.000026,       1.000039,       1.000116,       1.000762,       1.007516,       1.109374,
   61.500000,       1.000001,       1.000006,       1.000013,       1.000015,       1.000021,       1.000027,       1.000039,       1.000102,       1.000636,       1.006041,       1.085820,
   62.000000,       1.000001,       1.000006,       1.000013,       1.000015,       1.000021,       1.000027,       1.000035,       1.000090,       1.000531,       1.004869,       1.067184,
   62.500000,       1.000001,       1.000006,       1.000013,       1.000015,       1.000021,       1.000026,       1.000034,       1.000080,       1.000443,       1.003939,       1.052573,
   63.000000,       1.000001,       1.000006,       1.000013,       1.000015,       1.000021,       1.000025,       1.000034,       1.000072,       1.000372,       1.003201,       1.041177,
   63.500000,       1.000001,       1.000006,       1.000013,       1.000015,       1.000021,       1.000025,       1.000033,       1.000065,       1.000313,       1.002603,       1.032318,
   64.000000,       1.000001,       1.000006,       1.000013,       1.000015,       1.000021,       1.000025,       1.000033,       1.000059,       1.000264,       1.002126,       1.025430,
   64.500000,       1.000001,       1.000006,       1.000013,       1.000015,       1.000021,       1.000025,       1.000033,       1.000054,       1.000226,       1.001744,       1.020070,
   65.000000,       1.000001,       1.000006,       1.000013,       1.000016,       1.000020,       1.000025,       1.000032,       1.000047,       1.000193,       1.001433,       1.015893,
   65.500000,       1.000001,       1.000006,       1.000013,       1.000016,       1.000021,       1.000025,       1.000031,       1.000044,       1.000165,       1.001179,       1.012629,
   66.000000,       1.000001,       1.000006,       1.000013,       1.000016,       1.000021,       1.000025,       1.000031,       1.000041,       1.000144,       1.000976,       1.010066,
   66.500000,       1.000001,       1.000006,       1.000013,       1.000016,       1.000021,       1.000025,       1.000031,       1.000040,       1.000124,       1.000810,       1.008052,
   67.000000,       1.000001,       1.000006,       1.000013,       1.000016,       1.000021,       1.000025,       1.000030,       1.000040,       1.000109,       1.000675,       1.006466,
   67.500000,       1.000001,       1.000006,       1.000013,       1.000016,       1.000021,       1.000025,       1.000030,       1.000036,       1.000097,       1.000565,       1.005209,
   68.000000,       1.000001,       1.000006,       1.000013,       1.000016,       1.000021,       1.000025,       1.000029,       1.000036,       1.000085,       1.000475,       1.004209,
   68.500000,       1.000001,       1.000006,       1.000013,       1.000016,       1.000021,       1.000025,       1.000029,       1.000035,       1.000078,       1.000396,       1.003413,
   69.000000,       1.000001,       1.000006,       1.000013,       1.000016,       1.000021,       1.000025,       1.000029,       1.000034,       1.000071,       1.000334,       1.002777,
   69.500000,       1.000001,       1.000006,       1.000013,       1.000016,       1.000021,       1.000025,       1.000029,       1.000034,       1.000064,       1.000283,       1.002263,
   70.000000,       1.000001,       1.000006,       1.000013,       1.000016,       1.000021,       1.000025,       1.000029,       1.000034,       1.000060,       1.000239,       1.001850,
   70.500000,       1.000001,       1.000006,       1.000013,       1.000015,       1.000021,       1.000025,       1.000028,       1.000033,       1.000054,       1.000204,       1.001521,
   71.000000,       1.000001,       1.000006,       1.000013,       1.000014,       1.000021,       1.000025,       1.000027,       1.000033,       1.000049,       1.000175,       1.001251,
   71.500000,       1.000001,       1.000006,       1.000013,       1.000014,       1.000021,       1.000025,       1.000027,       1.000033,       1.000045,       1.000151,       1.001036,
   72.000000,       1.000001,       1.000006,       1.000013,       1.000015,       1.000021,       1.000025,       1.000026,       1.000033,       1.000044,       1.000132,       1.000856,
   72.500000,       1.000001,       1.000006,       1.000013,       1.000015,       1.000021,       1.000025,       1.000027,       1.000033,       1.000043,       1.000115,       1.000711,
   73.000000,       1.000001,       1.000006,       1.000013,       1.000015,       1.000021,       1.000025,       1.000026,       1.000033,       1.000040,       1.000101,       1.000594,
   73.500000,       1.000001,       1.000006,       1.000013,       1.000014,       1.000021,       1.000025,       1.000026,       1.000032,       1.000040,       1.000088,       1.000496,
   74.000000,       1.000001,       1.000006,       1.000013,       1.000014,       1.000021,       1.000025,       1.000026,       1.000032,       1.000039,       1.000081,       1.000414,
   74.500000,       1.000001,       1.000006,       1.000013,       1.000014,       1.000021,       1.000025,       1.000026,       1.000032,       1.000037,       1.000074,       1.000348,
   75.000000,       1.000001,       1.000006,       1.000013,       1.000014,       1.000021,       1.000025,       1.000027,       1.000032,       1.000037,       1.000066,       1.000292,
   75.500000,       1.000001,       1.000006,       1.000013,       1.000015,       1.000021,       1.000025,       1.000027,       1.000032,       1.000036,       1.000061,       1.000245,
   76.000000,       1.000001,       1.000006,       1.000013,       1.000015,       1.000021,       1.000025,       1.000027,       1.000031,       1.000035,       1.000055,       1.000209,
   76.500000,       1.000001,       1.000006,       1.000013,       1.000016,       1.000021,       1.000025,       1.000027,       1.000031,       1.000034,       1.000048,       1.000177,
   77.000000,       1.000001,       1.000006,       1.000013,       1.000016,       1.000021,       1.000025,       1.000027,       1.000031,       1.000034,       1.000045,       1.000151,
   77.500000,       1.000001,       1.000006,       1.000013,       1.000016,       1.000021,       1.000024,       1.000028,       1.000031,       1.000034,       1.000043,       1.000130,
   78.000000,       1.000001,       1.000006,       1.000013,       1.000017,       1.000021,       1.000024,       1.000028,       1.000031,       1.000034,       1.000040,       1.000110,
   78.500000,       1.000001,       1.000006,       1.000013,       1.000017,       1.000020,       1.000023,       1.000028,       1.000031,       1.000033,       1.000039,       1.000096,
   79.000000,       1.000001,       1.000006,       1.000013,       1.000017,       1.000021,       1.000023,       1.000028,       1.000030,       1.000033,       1.000037,       1.000082,
   79.500000,       1.000001,       1.000006,       1.000013,       1.000017,       1.000021,       1.000024,       1.000027,       1.000030,       1.000031,       1.000035,       1.000073,
   80.000000,       1.000001,       1.000006,       1.000013,       1.000017,       1.000021,       1.000024,       1.000026,       1.000028,       1.000031,       1.000033,       1.000062,
   80.500000,       1.000001,       1.000006,       1.000013,       1.000017,       1.000021,       1.000023,       1.000026,       1.000028,       1.000029,       1.000032,       1.000055,
   81.000000,       1.000001,       1.000006,       1.000013,       1.000017,       1.000021,       1.000023,       1.000026,       1.000028,       1.000028,       1.000031,       1.000047,
   81.500000,       1.000001,       1.000006,       1.000013,       1.000017,       1.000020,       1.000023,       1.000026,       1.000027,       1.000028,       1.000030,       1.000041,
   82.000000,       1.000001,       1.000006,       1.000013,       1.000017,       1.000020,       1.000022,       1.000025,       1.000027,       1.000027,       1.000028,       1.000034,
   82.500000,       1.000001,       1.000006,       1.000013,       1.000016,       1.000020,       1.000023,       1.000025,       1.000027,       1.000027,       1.000025,       1.000031,
   83.000000,       1.000001,       1.000006,       1.000012,       1.000016,       1.000020,       1.000023,       1.000024,       1.000027,       1.000027,       1.000023,       1.000026,
   83.500000,       1.000001,       1.000006,       1.000012,       1.000016,       1.000019,       1.000022,       1.000023,       1.000027,       1.000027,       1.000022,       1.000023,
   84.000000,       1.000001,       1.000006,       1.000012,       1.000016,       1.000019,       1.000021,       1.000022,       1.000026,       1.000026,       1.000021,       1.000019,
   84.500000,       1.000001,       1.000006,       1.000012,       1.000016,       1.000019,       1.000021,       1.000023,       1.000025,       1.000024,       1.000020,       1.000016,
   85.000000,       1.000001,       1.000006,       1.000012,       1.000016,       1.000018,       1.000021,       1.000023,       1.000024,       1.000022,       1.000018,       1.000014,
   85.500000,       1.000001,       1.000006,       1.000012,       1.000016,       1.000017,       1.000020,       1.000022,       1.000025,       1.000020,       1.000017,       1.000010,
   86.000000,       1.000001,       1.000006,       1.000012,       1.000015,       1.000017,       1.000019,       1.000021,       1.000024,       1.000018,       1.000015,       1.000006,
   86.500000,       1.000001,       1.000006,       1.000013,       1.000015,       1.000016,       1.000019,       1.000020,       1.000022,       1.000018,       1.000014,       1.000002,
   87.000000,       1.000001,       1.000006,       1.000013,       1.000015,       1.000016,       1.000018,       1.000019,       1.000021,       1.000017,       1.000010,       0.999999,
   87.500000,       1.000001,       1.000006,       1.000013,       1.000015,       1.000016,       1.000018,       1.000019,       1.000019,       1.000016,       1.000008,       0.999998,
   88.000000,       1.000001,       1.000006,       1.000013,       1.000015,       1.000016,       1.000018,       1.000019,       1.000018,       1.000014,       1.000006,       0.999996,
   88.500000,       1.000001,       1.000006,       1.000012,       1.000013,       1.000016,       1.000017,       1.000019,       1.000017,       1.000013,       1.000004,       0.999994,
   89.000000,       1.000001,       1.000006,       1.000012,       1.000013,       1.000014,       1.000016,       1.000018,       1.000015,       1.000011,       1.000000,       0.999993,
   89.500000,       1.000001,       1.000006,       1.000011,       1.000013,       1.000013,       1.000016,       1.000018,       1.000014,       1.000011,       0.999998,       0.999993,
   90.000000,       1.000001,       1.000006,       1.000011,       1.000012,       1.000013,       1.000016,       1.000017,       1.000011,       1.000009,       0.999995,       0.999992,
   90.500000,       1.000001,       1.000006,       1.000010,       1.000012,       1.000012,       1.000015,       1.000016,       1.000010,       1.000008,       0.999995,       0.999990,
   91.000000,       1.000001,       1.000006,       1.000009,       1.000011,       1.000012,       1.000015,       1.000015,       1.000009,       1.000007,       0.999993,       0.999989,
   91.500000,       1.000001,       1.000006,       1.000009,       1.000011,       1.000011,       1.000014,       1.000015,       1.000009,       1.000005,       0.999992,       0.999988,
   92.000000,       1.000001,       1.000006,       1.000009,       1.000011,       1.000011,       1.000013,       1.000013,       1.000007,       1.000002,       0.999990,       0.999988,
   92.500000,       1.000001,       1.000005,       1.000008,       1.000011,       1.000011,       1.000012,       1.000012,       1.000006,       0.999999,       0.999990,       0.999988,
   93.000000,       1.000001,       1.000005,       1.000008,       1.000010,       1.000010,       1.000011,       1.000009,       1.000006,       0.999998,       0.999990,       0.999987,
   93.500000,       1.000001,       1.000005,       1.000008,       1.000009,       1.000010,       1.000010,       1.000008,       1.000004,       0.999996,       0.999989,       0.999987,
   94.000000,       1.000001,       1.000005,       1.000007,       1.000010,       1.000010,       1.000010,       1.000006,       1.000003,       0.999994,       0.999988,       0.999987,
   94.500000,       1.000001,       1.000005,       1.000007,       1.000009,       1.000009,       1.000008,       1.000005,       1.000002,       0.999993,       0.999988,       0.999986,
   95.000000,       1.000001,       1.000005,       1.000007,       1.000008,       1.000009,       1.000007,       1.000005,       1.000001,       0.999992,       0.999987,       0.999986,
   95.500000,       1.000001,       1.000004,       1.000006,       1.000007,       1.000008,       1.000006,       1.000004,       1.000000,       0.999992,       0.999987,       0.999986,
   96.000000,       1.000001,       1.000004,       1.000006,       1.000006,       1.000007,       1.000005,       1.000003,       1.000000,       0.999992,       0.999987,       0.999985,
   96.500000,       1.000001,       1.000004,       1.000006,       1.000006,       1.000005,       1.000004,       1.000002,       0.999999,       0.999992,       0.999987,       0.999986,
   97.000000,       1.000001,       1.000004,       1.000005,       1.000005,       1.000004,       1.000002,       1.000000,       0.999999,       0.999991,       0.999988,       0.999987,
   97.500000,       1.000001,       1.000003,       1.000004,       1.000004,       1.000002,       1.000001,       1.000000,       0.999996,       0.999990,       0.999988,       0.999986,
   98.000000,       1.000001,       1.000003,       1.000003,       1.000004,       1.000002,       1.000001,       0.999999,       0.999997,       0.999991,       0.999989,       0.999987,
   98.500000,       1.000001,       1.000002,       1.000003,       1.000002,       1.000001,       0.999999,       0.999999,       0.999997,       0.999993,       0.999988,       0.999988,
   99.000000,       1.000001,       1.000002,       1.000002,       1.000001,       1.000001,       0.999999,       0.999998,       0.999996,       0.999993,       0.999990,       0.999988,
   99.500000,       1.000001,       1.000002,       1.000001,       1.000001,       1.000000,       0.999999,       0.999998,       0.999996,       0.999993,       0.999991,       0.999990,
